PRZ Layer MV of Element W
Depth (nm)	Intensity	Intensity Absorbed
0	1.16153	1.15894
0.16136	1.34996	1.3467
0.32272	1.49151	1.48745
0.48408	1.58218	1.57726
0.645439	1.66279	1.65692
0.806799	1.71881	1.71198
0.968159	1.76457	1.75672
1.12952	1.82964	1.82063
1.29088	1.85634	1.84627
1.45224	1.88673	1.87554
1.6136	1.90684	1.89455
1.77496	1.93486	1.92138
1.93632	1.96589	1.95115
2.09768	2.00455	1.98847
2.25904	2.04903	2.03147
2.4204	2.03082	2.01231
2.58176	2.04762	2.02781
2.74312	2.01537	1.99476
2.90448	2.04057	2.01857
3.06584	2.06774	2.04429
3.2272	2.06638	2.0418
3.38856	2.10195	2.07578
3.54992	2.12208	2.09445
3.71128	2.12984	2.10091
3.87264	2.13211	2.10196
4.034	2.16039	2.12862
4.19536	2.18083	2.14753
4.35672	2.16454	2.13026
4.51808	2.20465	2.16848
4.67944	2.17622	2.13931
4.8408	2.18644	2.14811
5.00216	2.23341	2.19302
5.16352	2.22223	2.1808
5.32488	2.21984	2.17721
5.48624	2.22374	2.17978
5.6476	2.19315	2.14851
5.80895	2.20449	2.15838
5.97031	2.21067	2.1632
6.13167	2.19934	2.15087
6.29303	2.21837	2.16825
6.45439	2.23107	2.17938
6.61575	2.20713	2.15472
6.77711	2.21424	2.1604
6.93847	2.20436	2.1495
7.09983	2.2125	2.1562
7.26119	2.19304	2.13601
7.42255	2.20042	2.14194
7.58391	2.17231	2.11335
7.74527	2.20733	2.14616
7.90663	2.177	2.11546
8.06799	2.20251	2.139
8.22935	2.19537	2.13082
8.39071	2.21367	2.14731
8.55207	2.19257	2.12562
8.71343	2.19522	2.12695
8.87479	2.19603	2.12649
9.03615	2.20248	2.13151
9.19751	2.21188	2.13939
9.35887	2.17943	2.10679
9.52023	2.17273	2.09907
9.68159	2.18927	2.11381
9.84295	2.16812	2.09217
10.0043	2.14606	2.06966
10.1657	2.13699	2.05971
10.327	2.15487	2.07573
10.4884	2.18864	2.10705
10.6498	2.16549	2.08356
10.8111	2.14771	2.06524
10.9725	2.13299	2.04991
11.1338	2.13278	2.04851
11.2952	2.13549	2.04991
11.4566	2.11423	2.02834
11.6179	2.0836	1.99779
11.7793	2.0599	1.97393
11.9406	2.0595	1.97241
12.102	2.04485	1.95725
12.2633	2.05952	1.97015
12.4247	2.0561	1.96574
12.5861	2.03805	1.94735
12.7474	2.04008	1.94814
12.9088	2.03792	1.94496
13.0701	2.01129	1.91843
13.2315	2.00818	1.91434
13.3929	1.99034	1.89623
13.5542	1.98265	1.88779
13.7156	1.9683	1.87306
13.8769	1.95743	1.86161
14.0383	1.933	1.83731
14.1997	1.9499	1.85231
14.361	1.94077	1.84257
14.5224	1.92137	1.82308
14.6837	1.90388	1.80544
14.8451	1.89858	1.79934
15.0065	1.88165	1.78227
15.1678	1.87221	1.77231
15.3292	1.87214	1.77123
15.4905	1.87202	1.77012
15.6519	1.84652	1.74501
15.8133	1.84923	1.74655
15.9746	1.84387	1.74047
16.136	1.84026	1.73603
16.2973	1.82469	1.72034
16.4587	1.82733	1.72183
16.6201	1.80118	1.69619
16.7814	1.76536	1.66146
16.9428	1.76053	1.65597
17.1041	1.74817	1.64341
17.2655	1.75089	1.64502
17.4269	1.74555	1.63906
17.5882	1.72815	1.62177
17.7496	1.70843	1.60235
17.9109	1.69435	1.58822
18.0723	1.68133	1.57509
18.2337	1.65014	1.54497
18.395	1.64091	1.53544
18.5564	1.62731	1.52182
18.7177	1.62479	1.51857
18.8791	1.61418	1.50778
19.0405	1.61098	1.50391
19.2018	1.59893	1.49179
19.3632	1.58543	1.47832
19.5245	1.57047	1.46352
19.6859	1.56935	1.46165
19.8473	1.55096	1.44369
20.0086	1.54455	1.43688
20.17	1.53902	1.4309
20.3313	1.51078	1.40382
20.4927	1.49237	1.38589
20.6541	1.46966	1.36402
20.8154	1.47522	1.36841
20.9768	1.45653	1.35031
21.1381	1.43251	1.32728
21.2995	1.421	1.31585
21.4609	1.41051	1.30537
21.6222	1.39309	1.28848
21.7836	1.38788	1.28292
21.9449	1.38038	1.27525
22.1063	1.36958	1.26453
22.2677	1.35094	1.24659
22.429	1.32817	1.22487
22.5904	1.31894	1.21565
22.7517	1.31403	1.21043
22.9131	1.31033	1.2063
23.0745	1.2936	1.19021
23.2358	1.28886	1.18517
23.3972	1.27047	1.16758
23.5585	1.22867	1.1285
23.7199	1.2274	1.12668
23.8813	1.21078	1.11078
24.0426	1.18814	1.08939
24.204	1.17305	1.07494
24.3653	1.16003	1.06238
24.5267	1.14271	1.0459
24.6881	1.12397	1.02816
24.8494	1.10373	1.00908
25.0108	1.09704	1.0024
25.1721	1.07266	0.979545
25.3335	1.07926	0.984995
25.4949	1.06609	0.972395
25.6562	1.05511	0.961808
25.8176	1.03931	0.946855
25.9789	1.0379	0.945029
26.1403	1.03033	0.937587
26.3017	1.01341	0.921654
26.463	1.0076	0.915845
26.6244	0.991306	0.900524
26.7857	0.985011	0.894268
26.9471	0.984212	0.893019
27.1085	0.975542	0.884653
27.2698	0.974471	0.883154
27.4312	0.95055	0.860978
27.5925	0.93724	0.848438
27.7539	0.920866	0.833135
27.9153	0.91518	0.827509
28.0766	0.902521	0.815592
28.238	0.86636	0.782465
28.3993	0.858572	0.77497
28.5607	0.865785	0.781021
28.7221	0.85628	0.772003
28.8834	0.85224	0.767915
29.0448	0.833963	0.751014
29.2061	0.828537	0.745691
29.3675	0.832392	0.748717
29.5289	0.828413	0.744711
29.6902	0.819017	0.735831
29.8516	0.78808	0.70763
30.0129	0.782688	0.702383
30.1743	0.768404	0.689157
30.3357	0.75026	0.672482
30.497	0.743745	0.666261
30.6584	0.73341	0.656628
30.8197	0.729983	0.653189
30.9811	0.730794	0.653529
31.1425	0.705615	0.630657
31.3038	0.707153	0.631672
31.4652	0.692075	0.617842
31.6265	0.686119	0.612162
31.7879	0.670256	0.597654
31.9493	0.656178	0.584757
32.1106	0.648962	0.577989
32.272	0.643954	0.573209
32.4333	0.634347	0.56434
32.5947	0.630272	0.560389
32.7561	0.633565	0.562978
32.9174	0.6192	0.549895
33.0788	0.603871	0.535964
33.2401	0.591616	0.524784
33.4015	0.577897	0.512316
33.5629	0.564994	0.500594
33.7242	0.546799	0.484197
33.8856	0.535037	0.473508
34.0469	0.534008	0.472315
34.2083	0.520863	0.460421
34.3697	0.513878	0.453979
34.531	0.510798	0.450993
34.6924	0.50367	0.444445
34.8537	0.485597	0.428249
35.0151	0.481564	0.424442
35.1764	0.485324	0.42751
35.3378	0.484389	0.42644
35.4992	0.474385	0.417386
35.6605	0.468027	0.41155
35.8219	0.466675	0.410126
35.9832	0.46079	0.40472
36.1446	0.448136	0.393372
36.306	0.44994	0.394724
36.4673	0.430499	0.377456
36.6287	0.433925	0.380243
36.79	0.418852	0.366827
36.9514	0.412731	0.361256
37.1128	0.406094	0.355242
37.2741	0.405163	0.354226
37.4355	0.396048	0.346056
37.5968	0.383694	0.335063
37.7582	0.38286	0.334136
37.9196	0.371141	0.323721
38.0809	0.365239	0.318391
38.2423	0.36446	0.317524
38.4036	0.364488	0.317361
38.565	0.357039	0.310694
38.7264	0.348087	0.30273
38.8877	0.337415	0.293277
39.0491	0.322699	0.280328
39.2104	0.320212	0.278006
39.3718	0.325913	0.282784
39.5332	0.313171	0.271568
39.6945	0.302996	0.262593
39.8559	0.29635	0.256689
40.0172	0.290629	0.251593
40.1786	0.282434	0.24436
40.34	0.274778	0.237588
40.5013	0.271763	0.234843
40.6627	0.273161	0.235914
40.824	0.272296	0.235031
40.9854	0.272341	0.234928
41.1468	0.268453	0.231441
41.3081	0.26299	0.226602
41.4695	0.260477	0.224304
41.6308	0.253288	0.21799
41.7922	0.245809	0.211433
41.9536	0.236852	0.203612
42.1149	0.237876	0.204376
42.2763	0.234444	0.201317
42.4376	0.224489	0.192656
42.599	0.216365	0.185575
42.7604	0.216874	0.185907
42.9217	0.217783	0.186576
43.0831	0.217203	0.18597
43.2444	0.215398	0.18431
43.4058	0.206077	0.176232
43.5672	0.202192	0.17281
43.7285	0.192363	0.164318
43.8899	0.197682	0.168758
44.0512	0.183332	0.156418
44.2126	0.178582	0.152274
44.374	0.170679	0.145453
44.5353	0.1662	0.141555
44.6967	0.160925	0.136985
44.858	0.160338	0.13641
45.0194	0.160272	0.136268
45.1808	0.156999	0.133404
45.3421	0.15458	0.131271
45.5035	0.151595	0.128661
45.6648	0.148849	0.126257
45.8262	0.146043	0.123808
45.9876	0.146796	0.124372
46.1489	0.140219	0.118734
46.3103	0.135377	0.114565
46.4716	0.130717	0.110557
46.633	0.128345	0.108489
46.7944	0.131144	0.110792
46.9557	0.125572	0.106021
47.1171	0.125816	0.106167
47.2784	0.123412	0.104077
47.4398	0.122462	0.103217
47.6012	0.118428	0.0997568
47.7625	0.122309	0.102969
47.9239	0.117857	0.0991662
48.0852	0.112128	0.094291
48.2466	0.106247	0.0892917
48.408	0.107044	0.0899084
48.5693	0.106183	0.0891358
48.7307	0.104494	0.0876667
48.892	0.101385	0.0850105
49.0534	0.0977368	0.0819028
49.2148	0.0950077	0.0795699
49.3761	0.0948035	0.0793554
49.5375	0.0927584	0.0776009
49.6988	0.0887149	0.0741769
49.8602	0.0843901	0.0705143
50.0216	0.0812542	0.0678533
50.1829	0.0797525	0.0665603
50.3443	0.0800883	0.0668031
50.5056	0.0774981	0.0646085
50.667	0.0750456	0.0625266
50.8284	0.0753467	0.0627392
50.9897	0.0712261	0.0592722
51.1511	0.066166	0.0550284
51.3124	0.0675498	0.0561433
51.4738	0.0657593	0.0546231
51.6352	0.0659193	0.0547259
51.7965	0.0658079	0.0546044
51.9579	0.0640489	0.0531149
52.1192	0.063106	0.0523013
52.2806	0.0630259	0.0522056
52.442	0.0562677	0.04658
52.6033	0.0561863	0.0464843
52.7647	0.0542909	0.04489
52.926	0.0533797	0.0441111
53.0874	0.052009	0.0429526
53.2488	0.0515218	0.042526
53.4101	0.0523248	0.0431642
53.5715	0.0530123	0.043708
53.7328	0.053455	0.0440477
53.8942	0.0504471	0.0415429
54.0556	0.0498511	0.0410274
54.2169	0.0493246	0.040572
54.3783	0.045471	0.0373821
54.5396	0.0454171	0.0373153
54.701	0.0466885	0.0383348
54.8624	0.044047	0.0361464
55.0237	0.0425936	0.0349348
55.1851	0.0435531	0.0357006
55.3464	0.0429104	0.0351553
55.5078	0.0395029	0.032344
55.6692	0.0407172	0.0333183
55.8305	0.0396116	0.0323948
55.9919	0.0370177	0.0302566
56.1532	0.036702	0.0299829
56.3146	0.0369973	0.0302058
56.476	0.0386945	0.0315734
56.6373	0.0334848	0.0273073
56.7987	0.0345749	0.0281788
56.96	0.0325085	0.0264782
57.1214	0.0315758	0.0257043
57.2828	0.0296924	0.0241582
57.4441	0.02786	0.0226532
57.6055	0.0273397	0.0222173
57.7668	0.0282358	0.0229326
57.9282	0.0255099	0.0207068
58.0895	0.0258648	0.0209811
58.2509	0.0236786	0.0191963
58.4123	0.023103	0.0187175
58.5736	0.0229028	0.0185449
58.735	0.0212882	0.0172272
58.8963	0.0203313	0.0164432
59.0577	0.0195441	0.0157982
59.2191	0.0192474	0.0155498
59.3804	0.0197408	0.0159389
59.5418	0.0202929	0.0163749
59.7031	0.0194597	0.0156935
59.8645	0.0200439	0.0161541
60.0259	0.0198362	0.0159788
60.1872	0.0193818	0.0156048
60.3486	0.0179775	0.0144669
60.5099	0.0172053	0.0138371
60.6713	0.0169937	0.0136582
60.8327	0.0166881	0.0134046
60.994	0.0168756	0.013547
61.1554	0.0166788	0.0133815
61.3167	0.0155611	0.0124781
61.4781	0.0156793	0.0125642
61.6395	0.0149043	0.0119366
61.8008	0.013183	0.0105524
61.9622	0.0126828	0.0101469
62.1235	0.0124681	0.00996759
62.2849	0.0117475	0.00938537
62.4463	0.0120108	0.00959109
62.6076	0.0116995	0.00933737
62.769	0.0111617	0.00890322
62.9303	0.011504	0.00917088
63.0917	0.0104144	0.00829722
63.2531	0.0100473	0.00800036
63.4144	0.0100033	0.00796028
63.5758	0.00867787	0.00690153
63.7371	0.00828962	0.00658921
63.8985	0.00835829	0.00664041
64.0599	0.00810614	0.00643678
64.2212	0.00802018	0.00636427
64.3826	0.0079802	0.00632889
64.5439	0.00722866	0.00572899
64.7053	0.0076307	0.00604358
64.8667	0.00756073	0.00598453
65.028	0.0074494	0.00589323
65.1894	0.00672639	0.00531927
65.3507	0.00680081	0.00537539
65.5121	0.00648125	0.00511984
65.6735	0.00611805	0.00482947
65.8348	0.00588731	0.00464482
65.9962	0.00647523	0.00510511
66.1575	0.00638625	0.00503225
66.3189	0.00577761	0.0045503
66.4803	0.00560384	0.00441109
66.6416	0.00521392	0.00410194
66.803	0.0048307	0.0037981
66.9643	0.00522483	0.00410554
67.1257	0.00537584	0.00422121
67.2871	0.00539644	0.00423441
67.4484	0.00509802	0.00399822
67.6098	0.00605514	0.00474637
67.7711	0.00466005	0.00365116
67.9325	0.00424968	0.00332782
68.0939	0.00378108	0.00295893
68.2552	0.00368486	0.00288177
68.4166	0.00361661	0.00282625
68.5779	0.00323304	0.00252512
68.7393	0.00343761	0.00268324
68.9007	0.00324076	0.00252828
69.062	0.00283189	0.00220828
69.2234	0.00273807	0.00213393
69.3847	0.00284611	0.0022167
69.5461	0.00262577	0.00204415
69.7075	0.00286539	0.0022294
69.8688	0.00279648	0.00217427
70.0302	0.00193611	0.00150431
70.1915	0.00189599	0.00147254
70.3529	0.00206223	0.00160081
70.5143	0.0018968	0.001472
70.6756	0.00247274	0.00191756
70.837	0.00177992	0.00137933
70.9983	0.00163082	0.00126284
71.1597	0.00154012	0.00119197
71.3211	0.00160087	0.00123815
71.4824	0.00153716	0.00118841
71.6438	0.00195059	0.00150717
71.8051	0.00194617	0.00150289
71.9665	0.00190543	0.00147055
72.1279	0.00215047	0.00165868
72.2892	0.00213389	0.00164474
72.4506	0.00195086	0.00150249
72.6119	0.00176698	0.00136005
72.7733	0.00157399	0.00121083
72.9347	0.00160968	0.00123734
73.096	0.0019147	0.00147116
73.2574	0.00187868	0.0014424
73.4187	0.00145919	0.00111971
73.5801	0.00142445	0.00109264
73.7415	0.00136205	0.00104445
73.9028	0.00120722	0.000925322
74.0642	0.00112842	0.000864543
74.2255	0.00100087	0.000766414
74.3869	0.000986715	0.000755072
74.5483	0.000966934	0.000739486
74.7096	0.00101756	0.000777619
74.871	0.000961248	0.000734025
75.0323	0.000993328	0.000758198
75.1937	0.00105245	0.000802823
75.3551	0.00117911	0.000898929
75.5164	0.000801131	0.000610388
75.6778	0.000869038	0.000661761
75.8391	0.0008346	0.00063516
76.0005	0.000696555	0.000529764
76.1619	0.000609363	0.000463237
76.3232	0.000585599	0.000445078
76.4846	0.000578979	0.000439898
76.6459	0.000705548	0.000535684
76.8073	0.000509577	0.000386856
76.9687	0.000430657	0.000326552
77.13	0.000453118	0.000343203
77.2914	0.000468814	0.000354741
77.4527	0.000497911	0.000376529
77.6141	0.000556547	0.000420656
77.7755	0.000535878	0.000404865
77.9368	0.000503147	0.000379938
78.0982	0.000460144	0.000347369
78.2595	0.000480586	0.000362468
78.4209	0.000520311	0.000392127
78.5823	0.000542308	0.000408501
78.7436	0.000639032	0.000481179
78.905	0.000501029	0.000377027
79.0663	0.000408946	0.000307662
79.2277	0.000390887	0.000293997
79.3891	0.000388667	0.000292177
79.5504	0.000374164	0.000281167
79.7118	0.000383763	0.000288297
79.8731	0.000392303	0.000294526
80.0345	0.000273049	0.000204903
80.1959	0.000201681	0.000151271
80.3572	9.09266e-05	6.82473e-05
80.5186	0.0166175	0.0119625
